File: XRD_source_data/Hematite_Theta_2-Theta.asc
*TYPE		=  Raw
*CLASS		=  ASCII CLASS
*SAMPLE		=  Hematite
*COMMENT	=
*FNAME		=  Hematite_Theta_2-Theta.asc
*DATE		=  07-Mar-24 14:38

*GROUP_COUNT	=  1
*GONIO		=  MiniFlex 300/600, 150
*ATTACHMENT	=  ASC-6
*ASC		=  0, 0, 0.000000, 0.000000
*FILTER		=  None
*C_MONOCHRO	=  None, 0.000000
*SLIT_NAME	=  0, IHS
*SLIT_NAME	=  1, DS +
*SLIT_NAME	=  2, SS
*SLIT_NAME	=  3, RS
*COUNTER	=  SC-70, 0
*POS_FORMAT	=  0
*SCAN_AXIS	=  2theta/theta
*MEAS_MODE	=  Continuous Scanning
*TARGET		=  29
*XRAY_CHAR	=  K-ALPHA
*WAVE_LENGTH1	=  1.54059
*WAVE_LENGTH2	=  1.54441
*THICKNESS	=  0, 0.000000
*MU		=  0, 0.000000
*SCAN_MODE	=  2theta/theta
*SPEED_DIM	=  sec./step
*XUNIT		=  deg.
*YUNIT		=  counts
*SCALE_MODE	=  1
*REP_COUNT	=  0
*SE_COUNT	=  0
*STD_MATERIAL	=  Unknown, Unknown, 0.000000, 0.000000, 0.000000, 0.000000, 0.000000, 0.000000
*LATT_CONS	=  0, Unknown, Unknown, 0.000000, 0.000000, 0.000000, 0.000000, 0.000000, 0.000000
*SEC_COUNT	=  1
*TSPEC_SIZE	=  0
*EXTRA_SIZE	=  0
*MEMO		=

*BEGIN
*GROUP		=  0
*START		=  10
*STOP		=  90
*STEP		=  0.02
*OFFSET		=  0.000000
*SPEED		=  0.6
*SLIT_SPEC	=  0, 10.0mm, 10, 0.000000
*SLIT_SPEC	=  1, 1.250deg, 1.25, 0.000000
*SLIT_SPEC	=  2, 13.0mm(Open), 13, 0.000000
*SLIT_SPEC	=  3, 13.0mm, 13, 0.000000
*KV		=  40
*MA		=  15
*LOW		=  0.000000
*HIGH		=  0.000000
*CTEMPER	=  0, 0.000000
*CTEMPER	=  1, 0.000000
*CTEMPER	=  2, 0.000000
*PAREX		=  0, 0.000000
*PAREX		=  1, 0.000000
*PAREX		=  2, 0.000000
*PAREX		=  3, 0.000000
*PAREX		=  4, 0.000000
*PAREX		=  5, 0.000000
*PAREX		=  6, 0.000000
*PAREX		=  7, 0.000000
*PAREX		=  8, 0.000000
*PAREX		=  9, 0.000000
*PAREX		=  10, 0.000000
*PAREX		=  11, 0.000000
*PAREX		=  12, 0.000000
*PAREX		=  13, 0.000000
*PAREX		=  14, 0.000000
*PAREX		=  15, 0.000000
*FULL_SCALE	=  699.6
*INDEX		=  0, 0, 0
*COUNT		=  4001
501, 489, 467, 453
447, 477, 460, 448
413, 452, 415, 430
432, 453, 415, 480
426, 453, 453, 427
434, 425, 440, 433
408, 390, 430, 425
463, 401, 433, 363
447, 422, 356, 403
420, 365, 405, 360
347, 381, 413, 361
390, 368, 425, 379
369, 347, 332, 365
383, 362, 370, 370
358, 389, 329, 357
348, 339, 387, 316
331, 350, 288, 354
357, 329, 350, 346
290, 320, 354, 328
324, 342, 321, 333
316, 298, 309, 333
306, 329, 307, 301
312, 288, 302, 319
293, 313, 296, 287
318, 277, 327, 316
310, 311, 328, 301
329, 258, 306, 288
302, 293, 270, 281
279, 279, 270, 282
293, 276, 284, 264
290, 288, 280, 245
264, 312, 268, 258
278, 298, 235, 277
288, 273, 259, 280
273, 266, 263, 264
255, 281, 290, 273
297, 286, 277, 299
260, 271, 271, 285
282, 260, 239, 286
284, 269, 295, 292
280, 272, 250, 277
272, 256, 277, 269
290, 272, 244, 303
268, 243, 297, 287
364, 368, 374, 324
289, 324, 338, 275
254, 253, 267, 285
287, 260, 260, 278
325, 275, 268, 261
277, 314, 282, 290
265, 281, 270, 292
313, 278, 267, 297
301, 308, 310, 293
290, 246, 273, 246
261, 250, 280, 296
259, 284, 301, 289
278, 281, 282, 274
258, 277, 274, 306
259, 292, 297, 276
262, 289, 276, 280
268, 269, 286, 254
285, 283, 274, 271
295, 282, 267, 278
290, 261, 290, 268
308, 259, 277, 263
315, 322, 363, 334
287, 283, 272, 292
260, 289, 294, 275
286, 272, 252, 280
288, 260, 279, 272
291, 292, 291, 283
289, 316, 285, 282
469, 467, 573, 527
343, 334, 326, 327
286, 294, 286, 315
298, 298, 264, 289
268, 279, 272, 281
275, 273, 297, 249
276, 258, 287, 279
313, 292, 295, 325
429, 396, 402, 388
286, 279, 270, 285
317, 268, 274, 283
263, 270, 277, 232
259, 252, 299, 249
274, 289, 274, 295
266, 273, 278, 254
264, 302, 284, 286
274, 275, 277, 300
279, 270, 285, 284
285, 288, 267, 259
282, 271, 291, 266
257, 290, 259, 269
292, 260, 267, 306
284, 283, 272, 262
294, 278, 281, 268
278, 303, 343, 306
276, 314, 330, 298
280, 271, 286, 278
262, 266, 272, 282
279, 290, 298, 293
264, 299, 256, 285
278, 275, 272, 276
289, 271, 262, 288
293, 268, 269, 260
266, 278, 285, 297
289, 293, 274, 275
248, 245, 287, 284
280, 274, 275, 305
283, 271, 282, 292
241, 284, 280, 266
282, 269, 266, 283
277, 279, 254, 328
256, 249, 287, 280
272, 254, 334, 290
274, 268, 284, 265
262, 277, 284, 283
273, 267, 289, 261
265, 272, 267, 262
291, 266, 264, 288
310, 305, 293, 285
298, 260, 287, 266
280, 259, 295, 296
349, 368, 321, 333
316, 287, 307, 310
275, 265, 305, 262
262, 269, 278, 296
293, 281, 291, 287
301, 302, 283, 260
305, 272, 271, 294
265, 289, 283, 296
269, 247, 277, 275
261, 301, 294, 268
292, 271, 285, 257
293, 293, 294, 282
302, 270, 267, 290
286, 287, 276, 285
309, 324, 356, 362
355, 358, 319, 333
311, 278, 279, 279
287, 311, 273, 308
288, 272, 295, 273
277, 310, 258, 290
261, 259, 289, 263
287, 280, 277, 282
286, 302, 283, 276
305, 253, 280, 250
258, 282, 262, 276
310, 305, 308, 257
299, 275, 304, 322
290, 287, 277, 253
284, 279, 277, 256
273, 288, 273, 296
254, 252, 285, 280
253, 290, 261, 303
273, 284, 275, 258
285, 285, 285, 279
290, 285, 269, 305
257, 261, 280, 246
298, 275, 303, 284
295, 274, 254, 291
245, 265, 274, 282
300, 286, 304, 296
281, 284, 338, 275
318, 322, 339, 327
288, 272, 267, 306
266, 277, 267, 277
274, 288, 287, 278
286, 301, 291, 296
333, 311, 303, 307
289, 297, 286, 272
256, 258, 314, 308
269, 254, 292, 264
264, 275, 275, 271
243, 302, 278, 282
309, 294, 292, 273
282, 268, 274, 270
301, 296, 293, 251
259, 270, 281, 301
279, 264, 276, 284
294, 264, 263, 312
283, 243, 274, 252
301, 271, 274, 286
266, 270, 272, 274
303, 274, 290, 275
273, 285, 273, 296
281, 286, 269, 287
331, 295, 285, 269
303, 258, 263, 319
258, 293, 278, 296
243, 284, 302, 271
284, 270, 265, 289
286, 270, 249, 249
285, 298, 275, 308
293, 297, 298, 303
256, 297, 271, 282
295, 248, 293, 302
303, 278, 261, 258
284, 275, 281, 244
259, 262, 284, 294
267, 267, 276, 297
244, 268, 300, 282
280, 289, 287, 286
270, 270, 273, 281
256, 297, 299, 297
282, 245, 300, 278
271, 281, 282, 278
276, 272, 268, 288
301, 281, 278, 251
297, 285, 290, 262
280, 269, 291, 266
295, 290, 242, 272
264, 275, 255, 295
287, 266, 271, 295
282, 268, 269, 314
267, 278, 274, 259
288, 274, 249, 285
276, 277, 274, 280
306, 249, 284, 307
269, 276, 279, 286
298, 289, 328, 273
270, 276, 265, 283
283, 287, 303, 282
297, 263, 313, 307
260, 270, 275, 261
277, 300, 261, 281
257, 266, 296, 236
278, 272, 270, 255
267, 299, 278, 304
307, 294, 264, 247
287, 277, 291, 281
264, 290, 306, 259
271, 264, 288, 309
299, 269, 277, 272
327, 261, 257, 274
280, 306, 292, 273
264, 265, 241, 270
303, 291, 248, 285
288, 277, 289, 272
305, 286, 256, 277
267, 277, 282, 248
283, 275, 269, 252
269, 264, 265, 246
245, 303, 282, 270
265, 274, 296, 267
255, 297, 297, 291
268, 277, 286, 250
270, 283, 267, 281
276, 259, 263, 287
275, 251, 259, 269
293
*END

*EOF