File: XRD_source_data/Magnetite_Theta_2-Theta.asc
*TYPE		=  Raw
*CLASS		=  ASCII CLASS
*SAMPLE		=  Magnetite
*COMMENT	=
*FNAME		=  Magnetite_Theta_2-Theta.asc
*DATE		=  07-Mar-24 15:59

*GROUP_COUNT	=  1
*GONIO		=  MiniFlex 300/600, 150
*ATTACHMENT	=  ASC-6
*ASC		=  0, 0, 0.000000, 0.000000
*FILTER		=  None
*C_MONOCHRO	=  None, 0.000000
*SLIT_NAME	=  0, IHS
*SLIT_NAME	=  1, DS +
*SLIT_NAME	=  2, SS
*SLIT_NAME	=  3, RS
*COUNTER	=  SC-70, 0
*POS_FORMAT	=  0
*SCAN_AXIS	=  2theta/theta
*MEAS_MODE	=  Continuous Scanning
*TARGET		=  29
*XRAY_CHAR	=  K-ALPHA
*WAVE_LENGTH1	=  1.54059
*WAVE_LENGTH2	=  1.54441
*THICKNESS	=  0, 0.000000
*MU		=  0, 0.000000
*SCAN_MODE	=  2theta/theta
*SPEED_DIM	=  sec./step
*XUNIT		=  deg.
*YUNIT		=  counts
*SCALE_MODE	=  1
*REP_COUNT	=  0
*SE_COUNT	=  0
*STD_MATERIAL	=  Unknown, Unknown, 0.000000, 0.000000, 0.000000, 0.000000, 0.000000, 0.000000
*LATT_CONS	=  0, Unknown, Unknown, 0.000000, 0.000000, 0.000000, 0.000000, 0.000000, 0.000000
*SEC_COUNT	=  1
*TSPEC_SIZE	=  0
*EXTRA_SIZE	=  0
*MEMO		=

*BEGIN
*GROUP		=  0
*START		=  10
*STOP		=  90
*STEP		=  0.02
*OFFSET		=  0.000000
*SPEED		=  0.6
*SLIT_SPEC	=  0, 10.0mm, 10, 0.000000
*SLIT_SPEC	=  1, 1.250deg, 1.25, 0.000000
*SLIT_SPEC	=  2, 13.0mm(Open), 13, 0.000000
*SLIT_SPEC	=  3, 13.0mm, 13, 0.000000
*KV		=  40
*MA		=  15
*LOW		=  0.000000
*HIGH		=  0.000000
*CTEMPER	=  0, 0.000000
*CTEMPER	=  1, 0.000000
*CTEMPER	=  2, 0.000000
*PAREX		=  0, 0.000000
*PAREX		=  1, 0.000000
*PAREX		=  2, 0.000000
*PAREX		=  3, 0.000000
*PAREX		=  4, 0.000000
*PAREX		=  5, 0.000000
*PAREX		=  6, 0.000000
*PAREX		=  7, 0.000000
*PAREX		=  8, 0.000000
*PAREX		=  9, 0.000000
*PAREX		=  10, 0.000000
*PAREX		=  11, 0.000000
*PAREX		=  12, 0.000000
*PAREX		=  13, 0.000000
*PAREX		=  14, 0.000000
*PAREX		=  15, 0.000000
*FULL_SCALE	=  1434
*INDEX		=  0, 0, 0
*COUNT		=  4001
869, 839, 832, 962
958, 879, 855, 956
796, 922, 782, 860
826, 865, 802, 853
748, 786, 859, 876
782, 824, 797, 839
772, 805, 762, 773
744, 761, 798, 748
757, 703, 784, 732
718, 706, 754, 711
720, 685, 755, 749
635, 703, 712, 722
700, 752, 700, 672
728, 635, 616, 709
685, 705, 634, 677
669, 615, 667, 637
622, 613, 677, 677
598, 609, 596, 621
617, 620, 590, 635
605, 613, 595, 573
616, 633, 554, 587
543, 573, 568, 623
541, 582, 589, 556
575, 525, 599, 542
557, 543, 533, 545
565, 518, 568, 566
559, 550, 568, 546
601, 606, 634, 594
552, 507, 565, 538
508, 517, 558, 563
542, 501, 526, 553
517, 513, 503, 562
514, 553, 530, 510
530, 498, 508, 497
532, 544, 521, 540
566, 558, 569, 564
521, 549, 541, 530
515, 527, 551, 492
485, 497, 529, 506
535, 546, 502, 514
523, 532, 491, 501
510, 532, 535, 525
507, 587, 514, 526
507, 524, 563, 500
519, 539, 526, 518
555, 552, 534, 519
530, 554, 566, 548
517, 530, 541, 565
539, 532, 553, 534
562, 558, 532, 491
554, 521, 493, 533
536, 532, 572, 552
548, 562, 572, 545
601, 561, 507, 519
533, 539, 522, 559
575, 517, 573, 513
507, 549, 588, 489
547, 527, 544, 547
542, 497, 510, 506
531, 548, 554, 561
520, 545, 502, 519
593, 534, 541, 558
531, 581, 546, 577
531, 510, 529, 562
672, 724, 777, 714
555, 532, 533, 508
574, 527, 541, 560
576, 521, 530, 526
554, 498, 503, 545
554, 548, 543, 555
530, 591, 544, 516
523, 572, 552, 553
525, 559, 563, 560
534, 522, 551, 462
527, 537, 520, 537
569, 545, 536, 525
550, 528, 524, 551
540, 595, 545, 527
593, 555, 546, 581
587, 592, 530, 511
716, 738, 733, 782
1017, 917, 756, 845
646, 589, 617, 588
545, 557, 584, 580
539, 545, 573, 576
539, 556, 557, 564
551, 553, 567, 556
538, 541, 577, 532
522, 535, 562, 534
545, 555, 520, 504
563, 536, 567, 542
520, 530, 553, 543
516, 542, 531, 542
524, 540, 502, 512
561, 556, 561, 508
552, 563, 562, 547
519, 554, 545, 533
513, 564, 546, 542
573, 542, 530, 543
551, 559, 601, 515
542, 557, 531, 522
533, 542, 525, 526
571, 523, 572, 562
540, 529, 543, 530
610, 642, 618, 642
625, 644, 582, 595
558, 587, 564, 550
564, 591, 571, 557
551, 557, 572, 547
518, 534, 515, 541
518, 551, 544, 536
544, 529, 570, 582
523, 570, 527, 537
547, 557, 577, 550
531, 552, 534, 495
556, 548, 577, 562
552, 542, 541, 555
569, 538, 599, 578
576, 522, 538, 505
535, 543, 548, 560
580, 558, 545, 542
513, 490, 559, 535
581, 534, 545, 536
513, 611, 520, 523
555, 560, 520, 541
541, 527, 545, 547
550, 549, 501, 534
577, 578, 521, 563
562, 535, 558, 546
557, 544, 546, 585
565, 538, 546, 560
547, 595, 517, 538
525, 527, 566, 551
558, 527, 549, 518
501, 551, 552, 476
548, 564, 529, 526
570, 571, 576, 508
590, 560, 582, 565
544, 603, 520, 574
539, 517, 510, 534
567, 536, 558, 575
560, 522, 562, 514
567, 544, 586, 577
527, 559, 552, 550
537, 588, 612, 552
552, 509, 587, 544
541, 537, 535, 546
624, 634, 580, 605
689, 682, 701, 669
528, 576, 588, 614
550, 565, 587, 564
562, 551, 504, 605
563, 569, 575, 579
536, 550, 529, 560
533, 541, 558, 554
521, 571, 562, 506
543, 529, 545, 565
515, 533, 588, 524
571, 531, 586, 592
561, 545, 539, 578
542, 603, 554, 541
560, 529, 577, 552
563, 549, 576, 523
546, 557, 599, 586
553, 568, 604, 562
715, 688, 741, 699
668, 609, 673, 591
559, 566, 558, 565
511, 569, 529, 586
587, 545, 558, 512
563, 562, 540, 539
573, 551, 569, 533
500, 538, 559, 570
540, 563, 578, 539
568, 548, 562, 564
574, 543, 558, 574
560, 571, 494, 535
533, 539, 564, 583
529, 573, 574, 498
590, 615, 591, 575
563, 533, 541, 523
560, 543, 562, 608
553, 555, 515, 551
531, 546, 565, 564
543, 546, 542, 544
548, 543, 555, 581
577, 583, 543, 531
553, 509, 535, 523
532, 539, 521, 528
531, 547, 538, 552
522, 554, 531, 515
579, 571, 545, 557
562, 569, 527, 601
521, 534, 523, 525
530, 528, 537, 569
563, 561, 515, 540
566, 592, 521, 596
568, 581, 549, 550
566, 503, 531, 576
598, 511, 550, 594
514, 554, 585, 549
572, 569, 591, 567
530, 559, 554, 543
604, 572, 571, 529
570, 561, 583, 573
610, 544, 530, 579
544, 526, 557, 533
595, 578, 571, 602
527, 544, 587, 595
555, 572, 557, 569
532, 562, 539, 593
571, 549, 563, 564
548, 513, 587, 492
533, 562, 534, 592
563, 545, 547, 555
534, 531, 543, 553
571, 564, 566, 569
553, 572, 540, 570
519, 575, 501, 538
584, 548, 577, 566
575, 540, 533, 547
531, 561, 572, 549
537, 525, 557, 547
524, 539, 542, 528
562, 536, 548, 540
549, 579, 603, 522
555, 566, 595, 578
539, 605, 535, 542
547, 559, 551, 549
534, 582, 520, 530
569, 518, 564, 554
550, 534, 595, 532
576, 548, 496, 595
534, 538, 554, 541
532, 552, 568, 564
573, 547, 560, 537
525, 580, 575, 554
526, 598, 560, 541
502, 612, 545, 563
584, 571, 541, 526
538, 530, 567, 532
539, 549, 559, 573
534, 548, 609, 535
599, 510, 546, 508
548, 547, 538, 517
543, 560, 564, 547
534, 560, 523, 501
570, 573, 494, 557
581, 576, 531, 561
589, 563, 620, 618
565
*END

*EOF