File: XRD_source_data/Mars_Theta_2-Theta.asc
*TYPE		=  Raw
*CLASS		=  ASCII CLASS
*SAMPLE		=  Mars
*COMMENT	=
*FNAME		=  Mars_Theta_2-Theta.asc
*DATE		=  07-Mar-24 15:18

*GROUP_COUNT	=  1
*GONIO		=  MiniFlex 300/600, 150
*ATTACHMENT	=  ASC-6
*ASC		=  0, 0, 0.000000, 0.000000
*FILTER		=  None
*C_MONOCHRO	=  None, 0.000000
*SLIT_NAME	=  0, IHS
*SLIT_NAME	=  1, DS +
*SLIT_NAME	=  2, SS
*SLIT_NAME	=  3, RS
*COUNTER	=  SC-70, 0
*POS_FORMAT	=  0
*SCAN_AXIS	=  2theta/theta
*MEAS_MODE	=  Continuous Scanning
*TARGET		=  29
*XRAY_CHAR	=  K-ALPHA
*WAVE_LENGTH1	=  1.54059
*WAVE_LENGTH2	=  1.54441
*THICKNESS	=  0, 0.000000
*MU		=  0, 0.000000
*SCAN_MODE	=  2theta/theta
*SPEED_DIM	=  sec./step
*XUNIT		=  deg.
*YUNIT		=  counts
*SCALE_MODE	=  1
*REP_COUNT	=  0
*SE_COUNT	=  0
*STD_MATERIAL	=  Unknown, Unknown, 0.000000, 0.000000, 0.000000, 0.000000, 0.000000, 0.000000
*LATT_CONS	=  0, Unknown, Unknown, 0.000000, 0.000000, 0.000000, 0.000000, 0.000000, 0.000000
*SEC_COUNT	=  1
*TSPEC_SIZE	=  0
*EXTRA_SIZE	=  0
*MEMO		=

*BEGIN
*GROUP		=  0
*START		=  10
*STOP		=  90
*STEP		=  0.02
*OFFSET		=  0.000000
*SPEED		=  0.6
*SLIT_SPEC	=  0, 10.0mm, 10, 0.000000
*SLIT_SPEC	=  1, 1.250deg, 1.25, 0.000000
*SLIT_SPEC	=  2, 13.0mm(Open), 13, 0.000000
*SLIT_SPEC	=  3, 13.0mm, 13, 0.000000
*KV		=  40
*MA		=  15
*LOW		=  0.000000
*HIGH		=  0.000000
*CTEMPER	=  0, 0.000000
*CTEMPER	=  1, 0.000000
*CTEMPER	=  2, 0.000000
*PAREX		=  0, 0.000000
*PAREX		=  1, 0.000000
*PAREX		=  2, 0.000000
*PAREX		=  3, 0.000000
*PAREX		=  4, 0.000000
*PAREX		=  5, 0.000000
*PAREX		=  6, 0.000000
*PAREX		=  7, 0.000000
*PAREX		=  8, 0.000000
*PAREX		=  9, 0.000000
*PAREX		=  10, 0.000000
*PAREX		=  11, 0.000000
*PAREX		=  12, 0.000000
*PAREX		=  13, 0.000000
*PAREX		=  14, 0.000000
*PAREX		=  15, 0.000000
*FULL_SCALE	=  2031.6
*INDEX		=  0, 0, 0
*COUNT		=  4001
327, 381, 343, 346
317, 383, 337, 321
351, 337, 366, 362
362, 341, 352, 316
282, 346, 329, 330
316, 275, 308, 359
369, 288, 325, 333
293, 322, 303, 283
346, 311, 330, 291
312, 312, 264, 295
262, 289, 293, 277
263, 286, 272, 262
281, 261, 286, 260
272, 273, 248, 245
239, 249, 217, 251
244, 259, 240, 239
251, 270, 237, 285
238, 224, 249, 199
200, 215, 223, 238
210, 220, 234, 252
195, 217, 194, 216
223, 195, 189, 170
214, 196, 208, 203
218, 201, 210, 210
183, 170, 206, 185
206, 216, 189, 194
175, 192, 159, 211
185, 187, 203, 212
170, 199, 197, 168
181, 192, 198, 203
198, 204, 197, 208
192, 212, 198, 207
200, 208, 199, 187
196, 177, 210, 205
362, 433, 483, 519
235, 225, 217, 244
226, 186, 193, 205
170, 181, 186, 213
201, 183, 203, 204
187, 182, 185, 218
188, 191, 187, 190
200, 165, 180, 180
182, 202, 192, 168
214, 206, 200, 166
223, 207, 224, 226
180, 202, 177, 213
206, 186, 215, 221
232, 235, 223, 174
200, 205, 187, 197
185, 197, 198, 199
216, 179, 182, 230
225, 200, 181, 224
407, 528, 775, 1041
416, 400, 430, 411
194, 194, 205, 211
237, 223, 238, 269
195, 185, 215, 202
207, 170, 162, 195
188, 196, 171, 189
189, 178, 175, 187
180, 180, 166, 183
195, 196, 196, 222
163, 195, 185, 202
165, 196, 179, 182
161, 172, 187, 174
150, 176, 175, 177
172, 179, 179, 188
169, 179, 182, 169
176, 172, 168, 170
168, 191, 205, 185
205, 179, 164, 205
168, 199, 165, 210
183, 185, 184, 193
188, 204, 200, 216
170, 171, 178, 194
190, 185, 168, 200
199, 179, 174, 197
170, 171, 199, 186
187, 197, 201, 170
195, 196, 231, 222
225, 204, 209, 197
201, 201, 219, 219
192, 196, 194, 199
222, 254, 252, 283
219, 192, 204, 179
176, 201, 193, 182
178, 176, 187, 181
177, 174, 191, 183
176, 188, 165, 188
179, 171, 192, 181
173, 204, 171, 177
170, 178, 162, 202
171, 191, 193, 236
177, 178, 180, 163
208, 154, 179, 185
192, 203, 225, 183
166, 175, 195, 167
180, 176, 191, 171
193, 163, 185, 184
171, 186, 176, 180
168, 169, 194, 150
154, 157, 179, 172
200, 208, 201, 218
169, 178, 176, 163
163, 168, 176, 173
176, 158, 165, 160
150, 187, 160, 176
155, 173, 170, 158
190, 142, 167, 162
165, 186, 160, 165
149, 157, 150, 181
160, 169, 186, 167
212, 219, 213, 191
160, 164, 170, 165
140, 178, 164, 166
153, 173, 163, 154
176, 174, 171, 154
174, 179, 168, 167
164, 184, 170, 171
177, 184, 177, 168
160, 171, 187, 163
187, 159, 165, 178
172, 156, 180, 166
146, 177, 158, 168
176, 175, 197, 172
182, 142, 169, 165
276, 285, 277, 248
175, 178, 195, 207
202, 194, 179, 149
176, 168, 168, 164
175, 165, 166, 150
169, 138, 148, 158
164, 165, 160, 169
165, 161, 158, 161
192, 144, 179, 189
158, 186, 177, 198
170, 176, 171, 166
176, 154, 183, 185
172, 192, 176, 191
163, 171, 166, 172
155, 182, 170, 186
203, 208, 162, 203
189, 173, 187, 172
177, 133, 175, 157
149, 170, 179, 154
164, 166, 165, 137
154, 165, 143, 154
166, 186, 171, 163
173, 154, 153, 174
164, 165, 154, 186
166, 176, 160, 151
161, 152, 155, 167
192, 174, 165, 170
176, 185, 177, 187
163, 173, 183, 139
170, 177, 143, 173
175, 191, 206, 228
203, 183, 180, 174
139, 158, 170, 158
162, 139, 169, 163
153, 181, 139, 156
165, 190, 153, 168
168, 175, 153, 190
171, 154, 179, 180
162, 144, 146, 151
162, 154, 176, 179
148, 193, 184, 158
180, 180, 169, 167
181, 153, 184, 197
190, 186, 182, 170
166, 151, 185, 163
163, 151, 169, 160
172, 163, 152, 136
168, 167, 169, 148
183, 154, 137, 151
148, 174, 184, 186
165, 166, 172, 163
155, 137, 153, 160
152, 156, 155, 148
166, 149, 155, 161
170, 179, 190, 162
182, 173, 194, 225
242, 252, 233, 222
170, 185, 201, 176
146, 158, 165, 159
154, 186, 166, 153
183, 170, 156, 140
155, 150, 189, 163
152, 188, 152, 173
165, 146, 138, 142
134, 128, 167, 162
173, 148, 151, 167
157, 164, 135, 164
135, 162, 137, 147
179, 166, 171, 161
174, 149, 159, 173
184, 160, 182, 140
161, 159, 142, 162
185, 155, 144, 162
174, 151, 164, 172
152, 151, 176, 171
150, 161, 177, 164
127, 167, 164, 169
163, 157, 168, 175
161, 157, 153, 164
147, 183, 156, 167
184, 178, 165, 162
151, 178, 137, 151
165, 161, 150, 156
174, 146, 170, 134
155, 152, 156, 148
162, 147, 145, 173
167, 154, 155, 165
163, 135, 161, 142
164, 164, 168, 163
175, 142, 168, 145
183, 158, 143, 150
155, 137, 153, 150
163, 153, 168, 146
154, 155, 151, 188
152, 163, 170, 147
137, 149, 161, 160
150, 135, 156, 197
141, 160, 159, 193
135, 146, 165, 161
176, 160, 161, 138
135, 156, 165, 139
166, 140, 152, 161
134, 166, 156, 165
144, 153, 140, 134
171, 159, 176, 166
170, 173, 187, 156
166, 141, 151, 160
155, 184, 149, 149
146, 136, 159, 125
168, 175, 141, 159
131, 154, 161, 146
146, 136, 140, 132
155, 154, 160, 144
146, 180, 168, 147
135, 145, 148, 146
174, 152, 146, 166
135, 167, 162, 147
149, 149, 173, 154
153, 128, 152, 125
153, 142, 148, 153
145, 141, 150, 155
133, 172, 140, 144
145, 137, 160, 139
149, 174, 130, 157
155
*END

*EOF